#mGo	mLSP	Total	TotGenW	Counts	genWeight
1800	200	32362718	32362718.000	17459	17459.000
600	200	32362718	32362718.000	348350	348350.000
1950	800	32362718	32362718.000	19532	19532.000
1850	1400	32362718	32362718.000	21550	21550.000
2500	1200	32362718	32362718.000	19337	19337.000
1150	450	32362718	32362718.000	100718	100718.000
2250	300	32362718	32362718.000	16859	16859.000
2250	1100	32362718	32362718.000	19058	19058.000
1300	700	32362718	32362718.000	35771	35771.000
1250	300	32362718	32362718.000	49015	49015.000
600	375	32362718	32362718.000	356355	356355.000
1600	100	32362718	32362718.000	18643	18643.000
1050	400	32362718	32362718.000	146849	146849.000
2000	700	32362718	32362718.000	18982	18982.000
1200	850	32362718	32362718.000	64787	64787.000
2100	400	32362718	32362718.000	16935	16935.000
2550	500	32362718	32362718.000	18633	18633.000
2400	0	32362718	32362718.000	17098	17098.000
2050	1600	32362718	32362718.000	23923	23923.000
2100	1300	32362718	32362718.000	20614	20614.000
2200	1450	32362718	32362718.000	16947	16947.000
1950	1450	32362718	32362718.000	19247	19247.000
1150	400	32362718	32362718.000	93099	93099.000
1450	800	32362718	32362718.000	18234	18234.000
2000	1100	32362718	32362718.000	15072	15072.000
1300	750	32362718	32362718.000	36617	36617.000
1350	1125	32362718	32362718.000	27620	27620.000
1850	850	32362718	32362718.000	20130	20130.000
1800	1300	32362718	32362718.000	17601	17601.000
2400	800	32362718	32362718.000	15895	15895.000
1100	800	32362718	32362718.000	123939	123939.000
1900	1050	32362718	32362718.000	20769	20769.000
2700	1100	32362718	32362718.000	18014	18014.000
1850	700	32362718	32362718.000	18143	18143.000
2700	1000	32362718	32362718.000	16396	16396.000
1300	800	32362718	32362718.000	41071	41071.000
2600	1400	32362718	32362718.000	16968	16968.000
2100	1350	32362718	32362718.000	17900	17900.000
900	675	32362718	32362718.000	139531	139531.000
1650	1150	32362718	32362718.000	19065	19065.000
2550	400	32362718	32362718.000	22609	22609.000
1950	1400	32362718	32362718.000	18959	18959.000
1500	600	32362718	32362718.000	19943	19943.000
1600	950	32362718	32362718.000	20434	20434.000
2300	1100	32362718	32362718.000	15705	15705.000
1500	1200	32362718	32362718.000	15198	15198.000
1700	850	32362718	32362718.000	19469	19469.000
950	350	32362718	32362718.000	144016	144016.000
2000	200	32362718	32362718.000	19205	19205.000
2800	100	32362718	32362718.000	18023	18023.000
2100	1150	32362718	32362718.000	15093	15093.000
1650	1350	32362718	32362718.000	18650	18650.000
1100	875	32362718	32362718.000	126661	126661.000
900	600	32362718	32362718.000	135768	135768.000
1300	850	32362718	32362718.000	34552	34552.000
1050	550	32362718	32362718.000	148699	148699.000
1350	600	32362718	32362718.000	26614	26614.000
2000	1350	32362718	32362718.000	20739	20739.000
700	100	32362718	32362718.000	139384	139384.000
1550	900	32362718	32362718.000	17059	17059.000
1150	350	32362718	32362718.000	87822	87822.000
2500	1550	32362718	32362718.000	17936	17936.000
2350	1400	32362718	32362718.000	14322	14322.000
2100	1600	32362718	32362718.000	15315	15315.000
1500	1250	32362718	32362718.000	14833	14833.000
2500	1100	32362718	32362718.000	21598	21598.000
1400	650	32362718	32362718.000	20874	20874.000
1100	450	32362718	32362718.000	126823	126823.000
2300	300	32362718	32362718.000	19339	19339.000
2600	1200	32362718	32362718.000	18490	18490.000
2750	700	32362718	32362718.000	20100	20100.000
2150	1500	32362718	32362718.000	19011	19011.000
1800	800	32362718	32362718.000	19398	19398.000
1550	1000	32362718	32362718.000	19444	19444.000
2550	900	32362718	32362718.000	20364	20364.000
1150	650	32362718	32362718.000	88093	88093.000
2450	700	32362718	32362718.000	18122	18122.000
1450	1050	32362718	32362718.000	17703	17703.000
1950	100	32362718	32362718.000	17889	17889.000
800	200	32362718	32362718.000	148369	148369.000
1550	200	32362718	32362718.000	17962	17962.000
1300	300	32362718	32362718.000	39633	39633.000
2650	1600	32362718	32362718.000	17242	17242.000
1700	900	32362718	32362718.000	16089	16089.000
1900	1350	32362718	32362718.000	20353	20353.000
1200	700	32362718	32362718.000	63524	63524.000
2600	0	32362718	32362718.000	20526	20526.000
1350	950	32362718	32362718.000	31555	31555.000
2050	1200	32362718	32362718.000	18490	18490.000
2100	900	32362718	32362718.000	16961	16961.000
1600	1050	32362718	32362718.000	17279	17279.000
2750	1100	32362718	32362718.000	15354	15354.000
2650	1100	32362718	32362718.000	19819	19819.000
1200	900	32362718	32362718.000	69360	69360.000
2400	1550	32362718	32362718.000	17028	17028.000
2200	700	32362718	32362718.000	18897	18897.000
1300	350	32362718	32362718.000	32069	32069.000
1600	300	32362718	32362718.000	15842	15842.000
1550	800	32362718	32362718.000	18727	18727.000
1600	900	32362718	32362718.000	19679	19679.000
2050	1400	32362718	32362718.000	20767	20767.000
2100	1200	32362718	32362718.000	21982	21982.000
1650	500	32362718	32362718.000	22076	22076.000
900	500	32362718	32362718.000	142267	142267.000
2450	0	32362718	32362718.000	14756	14756.000
1600	600	32362718	32362718.000	16312	16312.000
2150	200	32362718	32362718.000	17911	17911.000
1650	1400	32362718	32362718.000	22086	22086.000
1900	1200	32362718	32362718.000	19664	19664.000
1950	700	32362718	32362718.000	18188	18188.000
1350	450	32362718	32362718.000	26118	26118.000
1800	1400	32362718	32362718.000	17596	17596.000
1700	600	32362718	32362718.000	17897	17897.000
2800	400	32362718	32362718.000	21094	21094.000
1900	1250	32362718	32362718.000	14804	14804.000
1300	600	32362718	32362718.000	34520	34520.000
1250	200	32362718	32362718.000	48184	48184.000
2500	200	32362718	32362718.000	18662	18662.000
1650	1425	32362718	32362718.000	21208	21208.000
2200	100	32362718	32362718.000	21314	21314.000
2650	200	32362718	32362718.000	18299	18299.000
2250	1550	32362718	32362718.000	20301	20301.000
1150	500	32362718	32362718.000	94626	94626.000
2450	1000	32362718	32362718.000	14505	14505.000
1350	400	32362718	32362718.000	26575	26575.000
1450	500	32362718	32362718.000	19838	19838.000
1000	600	32362718	32362718.000	139843	139843.000
1050	500	32362718	32362718.000	158070	158070.000
2300	1450	32362718	32362718.000	20204	20204.000
2250	1400	32362718	32362718.000	20468	20468.000
1750	750	32362718	32362718.000	22969	22969.000
2050	800	32362718	32362718.000	15853	15853.000
2050	1250	32362718	32362718.000	17979	17979.000
2150	1600	32362718	32362718.000	17373	17373.000
1850	600	32362718	32362718.000	18603	18603.000
1600	800	32362718	32362718.000	18645	18645.000
1250	700	32362718	32362718.000	44186	44186.000
1850	1050	32362718	32362718.000	17441	17441.000
2700	0	32362718	32362718.000	13070	13070.000
1900	1150	32362718	32362718.000	19233	19233.000
2300	800	32362718	32362718.000	13735	13735.000
1550	500	32362718	32362718.000	16626	16626.000
750	450	32362718	32362718.000	140490	140490.000
2200	1300	32362718	32362718.000	19390	19390.000
2000	1050	32362718	32362718.000	16658	16658.000
1500	850	32362718	32362718.000	18869	18869.000
2150	1200	32362718	32362718.000	19597	19597.000
1500	1150	32362718	32362718.000	21337	21337.000
2150	900	32362718	32362718.000	15774	15774.000
1450	550	32362718	32362718.000	17038	17038.000
1350	0	32362718	32362718.000	24166	24166.000
1450	850	32362718	32362718.000	21617	21617.000
1550	0	32362718	32362718.000	18745	18745.000
2000	0	32362718	32362718.000	18400	18400.000
1300	100	32362718	32362718.000	32696	32696.000
950	725	32362718	32362718.000	143224	143224.000
1850	1300	32362718	32362718.000	19579	19579.000
1000	400	32362718	32362718.000	133889	133889.000
1900	1550	32362718	32362718.000	16034	16034.000
2400	1400	32362718	32362718.000	16579	16579.000
2250	400	32362718	32362718.000	14375	14375.000
1600	650	32362718	32362718.000	18427	18427.000
2150	1450	32362718	32362718.000	18129	18129.000
2150	500	32362718	32362718.000	17811	17811.000
2200	1550	32362718	32362718.000	20920	20920.000
2700	900	32362718	32362718.000	17547	17547.000
2450	300	32362718	32362718.000	20046	20046.000
2250	1300	32362718	32362718.000	14050	14050.000
1700	1400	32362718	32362718.000	16534	16534.000
2750	900	32362718	32362718.000	18063	18063.000
2100	200	32362718	32362718.000	22018	22018.000
2600	500	32362718	32362718.000	17771	17771.000
2800	1200	32362718	32362718.000	17074	17074.000
850	300	32362718	32362718.000	144651	144651.000
900	200	32362718	32362718.000	138121	138121.000
2400	100	32362718	32362718.000	16872	16872.000
2100	0	32362718	32362718.000	18720	18720.000
2700	1300	32362718	32362718.000	17972	17972.000
1850	100	32362718	32362718.000	21889	21889.000
1250	450	32362718	32362718.000	46922	46922.000
2450	200	32362718	32362718.000	17713	17713.000
900	550	32362718	32362718.000	136110	136110.000
950	650	32362718	32362718.000	141689	141689.000
2150	1000	32362718	32362718.000	15693	15693.000
1750	1300	32362718	32362718.000	21919	21919.000
2700	1500	32362718	32362718.000	16176	16176.000
1550	400	32362718	32362718.000	18965	18965.000
700	400	32362718	32362718.000	137276	137276.000
2500	900	32362718	32362718.000	18034	18034.000
1050	700	32362718	32362718.000	144032	144032.000
1950	600	32362718	32362718.000	19302	19302.000
1400	600	32362718	32362718.000	21252	21252.000
1900	1450	32362718	32362718.000	16612	16612.000
1000	100	32362718	32362718.000	141453	141453.000
2000	300	32362718	32362718.000	20031	20031.000
2350	1000	32362718	32362718.000	15983	15983.000
1350	750	32362718	32362718.000	26495	26495.000
1450	200	32362718	32362718.000	15879	15879.000
1600	0	32362718	32362718.000	16923	16923.000
2000	900	32362718	32362718.000	19171	19171.000
2200	1500	32362718	32362718.000	16876	16876.000
2650	0	32362718	32362718.000	17428	17428.000
1450	1100	32362718	32362718.000	22198	22198.000
1500	200	32362718	32362718.000	15831	15831.000
700	450	32362718	32362718.000	140477	140477.000
1250	950	32362718	32362718.000	49343	49343.000
2250	500	32362718	32362718.000	18085	18085.000
1500	1275	32362718	32362718.000	16639	16639.000
1500	800	32362718	32362718.000	19800	19800.000
2050	0	32362718	32362718.000	21215	21215.000
1500	1100	32362718	32362718.000	18255	18255.000
2650	1200	32362718	32362718.000	17884	17884.000
1950	1350	32362718	32362718.000	20293	20293.000
2200	1600	32362718	32362718.000	20591	20591.000
1950	1050	32362718	32362718.000	16502	16502.000
1150	800	32362718	32362718.000	90148	90148.000
1800	1100	32362718	32362718.000	19951	19951.000
1350	700	32362718	32362718.000	27182	27182.000
1650	1250	32362718	32362718.000	16546	16546.000
2450	100	32362718	32362718.000	15371	15371.000
1150	925	32362718	32362718.000	94615	94615.000
1100	600	32362718	32362718.000	118989	118989.000
1500	500	32362718	32362718.000	16437	16437.000
2700	1200	32362718	32362718.000	22075	22075.000
1600	1150	32362718	32362718.000	20316	20316.000
1150	550	32362718	32362718.000	97075	97075.000
2450	800	32362718	32362718.000	19251	19251.000
900	350	32362718	32362718.000	133857	133857.000
2500	800	32362718	32362718.000	18993	18993.000
1200	550	32362718	32362718.000	65987	65987.000
2300	1500	32362718	32362718.000	17649	17649.000
2050	700	32362718	32362718.000	19307	19307.000
1250	550	32362718	32362718.000	47766	47766.000
2400	500	32362718	32362718.000	18225	18225.000
1950	1300	32362718	32362718.000	19529	19529.000
2050	1150	32362718	32362718.000	20300	20300.000
1550	300	32362718	32362718.000	18562	18562.000
1600	400	32362718	32362718.000	18942	18942.000
1950	400	32362718	32362718.000	19628	19628.000
1700	1475	32362718	32362718.000	19349	19349.000
1000	700	32362718	32362718.000	145770	145770.000
1350	1100	32362718	32362718.000	28860	28860.000
1800	1200	32362718	32362718.000	21375	21375.000
2500	500	32362718	32362718.000	17182	17182.000
1350	200	32362718	32362718.000	27157	27157.000
1700	200	32362718	32362718.000	21207	21207.000
1650	600	32362718	32362718.000	20431	20431.000
1600	500	32362718	32362718.000	20242	20242.000
1200	450	32362718	32362718.000	69731	69731.000
750	525	32362718	32362718.000	130285	130285.000
2400	1100	32362718	32362718.000	19124	19124.000
1700	1100	32362718	32362718.000	18406	18406.000
1750	200	32362718	32362718.000	19942	19942.000
1950	500	32362718	32362718.000	15641	15641.000
1150	900	32362718	32362718.000	96772	96772.000
2500	300	32362718	32362718.000	17189	17189.000
2000	1400	32362718	32362718.000	20201	20201.000
2750	500	32362718	32362718.000	11487	11487.000
1050	825	32362718	32362718.000	150061	150061.000
1650	800	32362718	32362718.000	20577	20577.000
950	450	32362718	32362718.000	145681	145681.000
800	500	32362718	32362718.000	152199	152199.000
1850	800	32362718	32362718.000	18406	18406.000
1000	200	32362718	32362718.000	143544	143544.000
2500	700	32362718	32362718.000	20557	20557.000
1200	975	32362718	32362718.000	65970	65970.000
2500	1400	32362718	32362718.000	18567	18567.000
750	500	32362718	32362718.000	147318	147318.000
1400	800	32362718	32362718.000	21192	21192.000
2050	100	32362718	32362718.000	18162	18162.000
1450	1225	32362718	32362718.000	16178	16178.000
1400	500	32362718	32362718.000	20843	20843.000
2250	200	32362718	32362718.000	18316	18316.000
2000	600	32362718	32362718.000	20399	20399.000
1950	0	32362718	32362718.000	18856	18856.000
1550	1150	32362718	32362718.000	16125	16125.000
1900	0	32362718	32362718.000	17419	17419.000
1950	1000	32362718	32362718.000	17510	17510.000
1850	1100	32362718	32362718.000	17315	17315.000
2450	400	32362718	32362718.000	16436	16436.000
2800	1400	32362718	32362718.000	16322	16322.000
2600	1000	32362718	32362718.000	20610	20610.000
2750	1300	32362718	32362718.000	16115	16115.000
2150	100	32362718	32362718.000	18687	18687.000
1150	850	32362718	32362718.000	92461	92461.000
2400	1200	32362718	32362718.000	18858	18858.000
2750	300	32362718	32362718.000	15274	15274.000
1350	850	32362718	32362718.000	23404	23404.000
1950	1550	32362718	32362718.000	18932	18932.000
1750	300	32362718	32362718.000	20096	20096.000
2100	500	32362718	32362718.000	19684	19684.000
2800	800	32362718	32362718.000	21782	21782.000
1600	1100	32362718	32362718.000	20667	20667.000
2550	100	32362718	32362718.000	17210	17210.000
1850	1550	32362718	32362718.000	23660	23660.000
1450	0	32362718	32362718.000	19803	19803.000
2600	1300	32362718	32362718.000	17400	17400.000
2450	1600	32362718	32362718.000	20355	20355.000
1750	1525	32362718	32362718.000	20797	20797.000
2500	0	32362718	32362718.000	16106	16106.000
2400	1600	32362718	32362718.000	14870	14870.000
1450	900	32362718	32362718.000	18541	18541.000
1900	1100	32362718	32362718.000	20191	20191.000
1450	1200	32362718	32362718.000	16201	16201.000
1100	300	32362718	32362718.000	134248	134248.000
1350	800	32362718	32362718.000	26326	26326.000
1550	1325	32362718	32362718.000	19612	19612.000
2700	600	32362718	32362718.000	21704	21704.000
2350	300	32362718	32362718.000	17410	17410.000
1900	100	32362718	32362718.000	19032	19032.000
1850	900	32362718	32362718.000	17289	17289.000
2450	1550	32362718	32362718.000	17630	17630.000
2350	1300	32362718	32362718.000	19923	19923.000
1550	1250	32362718	32362718.000	18043	18043.000
1850	300	32362718	32362718.000	14778	14778.000
1300	400	32362718	32362718.000	35852	35852.000
2800	1600	32362718	32362718.000	19002	19002.000
2250	900	32362718	32362718.000	19120	19120.000
1500	400	32362718	32362718.000	20588	20588.000
1800	300	32362718	32362718.000	21498	21498.000
1500	700	32362718	32362718.000	22617	22617.000
2550	800	32362718	32362718.000	20486	20486.000
2550	1550	32362718	32362718.000	17814	17814.000
1550	1050	32362718	32362718.000	20762	20762.000
1750	1000	32362718	32362718.000	20418	20418.000
1650	850	32362718	32362718.000	15176	15176.000
900	450	32362718	32362718.000	145289	145289.000
850	350	32362718	32362718.000	136452	136452.000
1200	300	32362718	32362718.000	68530	68530.000
1600	200	32362718	32362718.000	21615	21615.000
2700	400	32362718	32362718.000	19363	19363.000
1250	850	32362718	32362718.000	48094	48094.000
2550	200	32362718	32362718.000	14656	14656.000
1300	450	32362718	32362718.000	33422	33422.000
1250	900	32362718	32362718.000	43490	43490.000
1650	1200	32362718	32362718.000	18015	18015.000
1500	750	32362718	32362718.000	16956	16956.000
1500	650	32362718	32362718.000	16316	16316.000
2750	1400	32362718	32362718.000	14273	14273.000
1400	1150	32362718	32362718.000	21028	21028.000
2300	1600	32362718	32362718.000	19713	19713.000
2350	700	32362718	32362718.000	20066	20066.000
2650	400	32362718	32362718.000	15864	15864.000
2100	600	32362718	32362718.000	17186	17186.000
1400	550	32362718	32362718.000	18877	18877.000
2100	1000	32362718	32362718.000	14643	14643.000
2500	600	32362718	32362718.000	16891	16891.000
2750	1000	32362718	32362718.000	13713	13713.000
1100	850	32362718	32362718.000	129224	129224.000
1850	1150	32362718	32362718.000	16753	16753.000
2350	500	32362718	32362718.000	21090	21090.000
650	425	32362718	32362718.000	222655	222655.000
1450	1150	32362718	32362718.000	23077	23077.000
1650	400	32362718	32362718.000	19006	19006.000
950	300	32362718	32362718.000	137816	137816.000
2200	400	32362718	32362718.000	16534	16534.000
2400	600	32362718	32362718.000	16556	16556.000
600	100	32362718	32362718.000	340200	340200.000
1750	850	32362718	32362718.000	18720	18720.000
1900	400	32362718	32362718.000	20773	20773.000
1800	1350	32362718	32362718.000	20254	20254.000
2100	300	32362718	32362718.000	18351	18351.000
2800	0	32362718	32362718.000	18638	18638.000
1150	300	32362718	32362718.000	93609	93609.000
1400	1100	32362718	32362718.000	21011	21011.000
1650	900	32362718	32362718.000	20740	20740.000
2750	1500	32362718	32362718.000	13283	13283.000
1200	800	32362718	32362718.000	63482	63482.000
700	475	32362718	32362718.000	135637	135637.000
1950	900	32362718	32362718.000	16674	16674.000
2750	100	32362718	32362718.000	18990	18990.000
1350	1050	32362718	32362718.000	25990	25990.000
1050	300	32362718	32362718.000	138140	138140.000
1750	1150	32362718	32362718.000	18493	18493.000
2750	600	32362718	32362718.000	15148	15148.000
1300	1050	32362718	32362718.000	33171	33171.000
1750	1450	32362718	32362718.000	20784	20784.000
2050	1500	32362718	32362718.000	18402	18402.000
1600	1350	32362718	32362718.000	23885	23885.000
2550	300	32362718	32362718.000	19952	19952.000
1600	1300	32362718	32362718.000	19680	19680.000
2150	0	32362718	32362718.000	18222	18222.000
850	625	32362718	32362718.000	137880	137880.000
1650	1300	32362718	32362718.000	17666	17666.000
2600	800	32362718	32362718.000	19963	19963.000
2200	900	32362718	32362718.000	17660	17660.000
950	700	32362718	32362718.000	144073	144073.000
2800	600	32362718	32362718.000	14147	14147.000
2800	1000	32362718	32362718.000	20411	20411.000
2400	1500	32362718	32362718.000	17765	17765.000
750	400	32362718	32362718.000	142708	142708.000
1200	100	32362718	32362718.000	65287	65287.000
1900	300	32362718	32362718.000	17886	17886.000
1800	1450	32362718	32362718.000	18059	18059.000
1900	500	32362718	32362718.000	17830	17830.000
1700	950	32362718	32362718.000	21664	21664.000
1300	200	32362718	32362718.000	33703	33703.000
2200	600	32362718	32362718.000	15486	15486.000
2000	1550	32362718	32362718.000	15919	15919.000
2300	1350	32362718	32362718.000	18151	18151.000
900	400	32362718	32362718.000	144277	144277.000
800	450	32362718	32362718.000	141053	141053.000
1650	0	32362718	32362718.000	19533	19533.000
1400	0	32362718	32362718.000	15183	15183.000
1000	450	32362718	32362718.000	139944	139944.000
2150	1300	32362718	32362718.000	17860	17860.000
1600	750	32362718	32362718.000	16108	16108.000
1550	1300	32362718	32362718.000	17607	17607.000
1350	650	32362718	32362718.000	27332	27332.000
2750	200	32362718	32362718.000	17005	17005.000
1200	950	32362718	32362718.000	65042	65042.000
2100	1500	32362718	32362718.000	15799	15799.000
1400	450	32362718	32362718.000	21058	21058.000
1900	1000	32362718	32362718.000	18093	18093.000
2050	900	32362718	32362718.000	19812	19812.000
600	350	32362718	32362718.000	361697	361697.000
2050	1350	32362718	32362718.000	20607	20607.000
2550	1300	32362718	32362718.000	17051	17051.000
2500	100	32362718	32362718.000	15533	15533.000
1100	550	32362718	32362718.000	131238	131238.000
